,Z_FFT(f)
X Unit(Hz),Y Unit(mm)
X Value,Y Value(Real)
0,0.010142588
0.25,6.68369E-05
0.5,-0.004159498
0.75,-0.000131335
1,-0.001668664
1.25,0.001307118
1.5,-4.13526E-05
1.75,-0.001209574
2,0.000269797
2.25,0.000867777
2.5,0.000145113
2.75,-0.001323976
3,0.001129104
3.25,-0.00052884
3.5,7.64597E-05
3.75,0.000533863
4,-0.000249351
4.25,-0.000507107
4.5,0.00087822
4.75,-0.000776257
5,0.00034751
5.25,-0.000162909
5.5,-0.000180198
5.75,0.000424661
6,-0.00052968
6.25,0.000458534
6.5,-0.000403699
6.75,0.000385857
7,1.87837E-06
7.25,0.000143831
7.5,-0.000382662
7.75,0.000304575
8,-0.000365672
8.25,0.000370691
8.5,-0.000107254
8.75,-2.93299E-05
9,3.9387E-05
9.25,-4.24963E-05
9.5,-0.00017773
9.75,0.000189446
10,-0.000107439
10.25,2.74959E-05
10.5,7.30746E-05
10.75,-2.90098E-05
11,-5.18334E-05
11.25,0.000286676
11.5,-0.000487439
11.75,9.11155E-05
12,0.000318764
12.25,-0.000121312
12.5,0.00014043
12.75,-0.000586073
13,0.000652495
13.25,-0.000154002
13.5,-9.81611E-05
13.75,0.000180145
14,-0.000300372
14.25,0.000214336
14.5,-0.000313838
14.75,0.000405595
15,-6.23897E-05
15.25,-0.000182936
15.5,-9.99279E-05
15.75,0.000369719
16,-0.00039022
16.25,8.29705E-05
16.5,0.000289136
16.75,-0.000295708
17,0.000173666
17.25,-1.29326E-05
17.5,-1.31014E-05
17.75,-2.32541E-05
18,-7.82767E-05
18.25,8.94244E-05
18.5,8.75603E-05
18.75,-0.00016983
19,-4.3405E-05
19.25,0.000108328
19.5,-6.19205E-06
19.75,-1.79547E-05
20,0.000146779
20.25,-0.000152966
20.5,-0.000120067
20.75,0.000257314
21,-0.000162472
21.25,0.000188824
21.5,-8.23878E-05
21.75,-0.000103238
22,4.97174E-06
22.25,0.000135523
22.5,-0.00038143
22.75,0.000672959
23,-0.000441622
23.25,-0.000132401
23.5,6.50475E-05
23.75,0.000626497
24,-0.000690836
24.25,0.002064356
24.5,-0.003798331
24.75,0.00165622
25,0.000387455
25.25,-0.000119011
25.5,-0.000217899
25.75,0.000487251
26,-0.000456669
26.25,0.000116116
26.5,0.000306832
26.75,-0.000352697
27,0.00030881
27.25,-0.000280738
27.5,6.04678E-05
27.75,2.03617E-05
28,-0.000120646
28.25,0.000297165
28.5,1.62245E-05
28.75,-0.000471877
29,0.000239957
29.25,7.67687E-06
29.5,3.5914E-05
29.75,0.000385481
30,-0.00070535
30.25,0.000405092
30.5,-0.000288413
30.75,0.000732572
31,-0.001037419
31.25,0.000758468
31.5,-0.000693963
31.75,0.001185956
32,-0.001203906
32.25,0.000254031
32.5,0.000317456
32.75,-0.000374161
33,0.000777628
33.25,-0.000478135
33.5,0.000221439
33.75,-0.001165362
34,0.001459717
34.25,-0.000793653
34.5,0.00137763
34.75,-0.001922141
35,0.000607216
35.25,0.00066973
35.5,-0.000952646
35.75,0.000343311
36,0.000713743
36.25,-0.001384245
36.5,0.001984078
36.75,-0.002331181
37,0.001287911
37.25,-0.000202961
37.5,0.000277724
37.75,0.000160671
38,-0.000760109
38.25,0.000393346
38.5,-1.26409E-05
38.75,0.000105825
39,-8.5629E-06
39.25,-0.000307859
39.5,0.000300943
39.75,-0.000266562
40,-7.5331E-05
40.25,0.000471118
40.5,-0.000493017
40.75,0.000478001
41,0.001206217
41.25,-0.002686095
41.5,0.002436227
41.75,-0.002393219
42,0.001266862
42.25,0.00054094
42.5,-0.001057217
42.75,0.001030078
43,-0.001249271
43.25,0.001062698
43.5,-0.000574141
43.75,0.000247195
44,-0.000134801
44.25,8.28403E-05
44.5,5.7309E-05
44.75,3.81538E-05
45,0.000118054
45.25,-0.0005895
45.5,0.000666549
45.75,-0.000497826
46,0.000170838
46.25,0.000272037
46.5,5.99149E-05
46.75,-0.000350369
47,-0.000342187
47.25,0.000561548
47.5,-3.46423E-05
47.75,-0.000283896
48,0.000493336
48.25,-2.10676E-05
48.5,-0.000148189
48.75,0.000573811
49,-0.004805676
49.25,0.006674126
49.5,-0.002660663
49.75,-0.000253862
50,0.000100199
50.25,0.000281593
50.5,0.0002515
50.75,-0.000303691
51,-0.000313812
51.25,0.000701806
51.5,-0.000226675
51.75,-0.000419317
52,0.000189523
52.25,0.000409313
52.5,-0.000455953
52.75,0.000625935
53,-0.001087224
53.25,0.000726312
53.5,-0.000939604
53.75,0.00158391
54,-0.001311657
54.25,0.001063649
54.5,-0.000938276
54.75,0.000157012
55,0.00035526
55.25,0.000163891
55.5,-0.00106246
55.75,0.001326083
56,-0.000391869
56.25,-0.000379443
56.5,0.000427559
56.75,-0.000786086
57,0.000716669
57.25,-0.000149849
57.5,0.000276232
57.75,2.41835E-05
58,-0.000142352
58.25,-0.000855136
58.5,0.001014876
58.75,-0.000836942
59,0.000730599
59.25,-0.000192816
59.5,0.000407645
59.75,-0.000895714
60,0.000714001
60.25,-0.000236334
60.5,3.99877E-05
60.75,-0.000248473
61,0.000213134
61.25,-0.000150539
61.5,8.76544E-05
61.75,0.000557957
62,-0.000629019
62.25,0.000249629
62.5,-0.00057108
62.75,0.000497414
63,0.000236411
63.25,-5.58232E-05
63.5,-0.000949092
63.75,0.001036284
64,-0.000211607
64.25,-7.63958E-05
64.5,-0.000340774
64.75,0.0004406
65,-0.000518121
65.25,0.00087706
65.5,-0.000751126
65.75,0.000638649
66,-0.000676577
66.25,0.000356979
66.5,8.41677E-05
66.75,-0.000317716
67,0.000151175
67.25,0.000268592
67.5,-9.52854E-05
67.75,-0.000650707
68,0.00104631
68.25,-0.000719652
68.5,-0.000175925
68.75,0.000780932
69,-0.000385929
69.25,0.000122966
69.5,-0.000478765
69.75,0.000405956
70,-0.000315331
70.25,0.00031318
70.5,-3.58825E-06
70.75,-0.000229049
71,0.000174366
71.25,-0.000383991
71.5,0.000517262
71.75,-0.000435682
72,0.000665827
72.25,-0.000616613
72.5,0.000353322
72.75,-9.88173E-06
73,-0.000355815
73.25,-0.000119409
73.5,0.002667669
73.75,-0.004125102
74,0.001506294
74.25,0.000643156
74.5,-0.000444782
74.75,0.000400341
75,-0.000426861
75.25,-0.000140901
75.5,0.000356993
75.75,-0.00038642
76,0.000265617
76.25,0.000484945
76.5,-0.000606826
76.75,0.000242851
77,0.0001158
77.25,3.98908E-05
77.5,-0.000714859
77.75,0.000454146
78,0.000196394
78.25,-0.000581855
78.5,0.000703909
78.75,-0.000431208
79,7.80644E-05
79.25,0.00038332
79.5,-0.000456133
79.75,0.000469959
80,-0.001079466
80.25,0.000765115
80.5,0.000214663
80.75,0.000103918
81,-0.000787638
81.25,0.001567062
81.5,-0.001248666
81.75,-0.000210052
82,-1.29833E-05
82.25,0.001372673
82.5,-0.002916394
82.75,4.4748E-07
83,0.002696415
83.25,0.000985446
83.5,-0.001880562
83.75,-0.001342346
84,0.002415978
84.25,-0.000549553
84.5,-0.000182952
84.75,0.000191211
85,-0.000764345
85.25,-0.000132796
85.5,0.001329304
85.75,-0.000654107
86,0.000154502
86.25,-0.001971712
86.5,0.002014715
86.75,0.0002366
87,-0.001434054
87.25,0.000185586
87.5,0.000942302
87.75,0.000269704
88,-0.000450353
88.25,0.000236239
88.5,-0.000595916
88.75,1.19892E-05
89,-0.000844822
89.25,0.000724182
89.5,0.000844487
89.75,-0.00043044
90,-0.000174571
90.25,-5.04295E-05
90.5,-0.000203918
90.75,0.000573767
91,-0.00035541
91.25,0.000304849
91.5,-0.000178886
91.75,0.000606682
92,-0.000731092
92.25,-0.000421915
92.5,0.000230292
92.75,0.000292755
93,0.000127104
93.25,-8.12054E-05
93.5,-0.000247497
93.75,-1.31644E-06
94,0.00065247
94.25,-0.000650359
94.5,0.000386722
94.75,-0.000627656
95,0.000252852
95.25,0.000388271
95.5,-0.000466901
95.75,0.000861389
96,-0.000503772
96.25,0.000109858
96.5,-0.000828305
96.75,0.001171702
97,-0.001249116
97.25,0.00065092
97.5,0.000978452
97.75,-0.001127506
98,-0.001358673
98.25,0.001822473
98.5,0.001436133
98.75,-0.002506736
99,0.000611114
99.25,0.000193137
99.5,0.000451408
99.75,-0.000984817
100,0.0006314
100.25,9.60937E-05
100.5,-0.000324805
100.75,0.000494809
101,-0.000762205
101.25,0.000809682
101.5,-0.000413533
101.75,0.000335501
102,-0.000914987
102.25,0.00020262
102.5,0.000166228
102.75,0.001000805
103,-0.001312153
103.25,0.000371236
103.5,0.000222795
103.75,0.000701281
104,-0.00116219
104.25,0.000303524
104.5,0.000466309
104.75,-0.000323733
105,-0.000122444
105.25,-0.000126168
105.5,0.000126833
105.75,0.000575044
106,-0.001593378
106.25,0.00196134
106.5,-0.000879457
106.75,-0.000589561
107,0.000589355
107.25,0.00045018
107.5,-0.000624902
107.75,8.05725E-05
108,-0.000107854
108.25,3.0778E-05
108.5,0.000356774
108.75,0.000429919
109,-0.000869997
109.25,0.000407006
109.5,-0.00015616
109.75,-0.000404118
110,0.000142066
110.25,0.00066956
110.5,0.000766807
110.75,-0.002396134
111,0.00136936
111.25,-0.00023775
111.5,-9.99055E-05
111.75,0.000110603
112,0.000550581
112.25,-0.000274449
112.5,-0.001033909
112.75,0.001429157
113,-0.000759684
113.25,0.000194121
113.5,-1.47307E-05
113.75,-2.8524E-06
114,-0.000117534
114.25,-0.00029339
114.5,0.000861098
114.75,-0.000741736
115,0.000658203
115.25,-0.000254907
115.5,-0.000754096
115.75,0.001055939
116,-0.000370543
116.25,-0.000107523
116.5,0.000241441
116.75,2.68185E-05
117,3.65686E-05
117.25,-0.001307411
117.5,0.000746875
117.75,0.000349317
118,0.000396862
118.25,7.80034E-05
118.5,-0.001019179
118.75,-0.000480589
119,0.001430552
119.25,-9.24177E-05
119.5,-0.000511585
119.75,0.000902497
120,-0.000630255
120.25,-0.001171783
120.5,0.001844239
120.75,0.000302558
121,-0.001917579
121.25,0.000863372
121.5,0.000145852
121.75,-0.000123135
122,-0.000908082
122.25,0.002406346
122.5,-0.00080135
122.75,-0.001909183
123,0.000437904
123.25,0.001601897
123.5,-0.001615113
123.75,0.000460591
124,0.000923438
124.25,-0.000425994
124.5,-0.003242845
124.75,0.003853646
125,-0.001700535
125.25,0.002680052
125.5,-0.000677497
125.75,-0.002071542
126,0.000786202
126.25,-0.000469948
126.5,0.000499022
126.75,0.00105526
127,-0.001104904
127.25,0.001271113
127.5,-0.001922945
127.75,0.001353021
128,-0.000885091
128.25,-0.00056294
128.5,0.001672949
128.75,-4.18784E-06
129,-0.00040833
129.25,-0.000803351
129.5,-0.000291417
129.75,0.001235742
130,-0.000662768
130.25,0.000188352
130.5,0.000983514
130.75,-0.004217631
131,0.005038055
131.25,-0.000281241
131.5,-0.002479545
131.75,0.001827266
132,-0.001214254
132.25,-0.001310055
132.5,0.002610209
132.75,-0.003398089
133,0.00470884
133.25,-0.00235749
133.5,-0.001156671
133.75,0.001397311
134,0.002056786
134.25,-0.002205202
134.5,-0.00116597
134.75,0.001446831
135,-0.001929268
135.25,0.005091326
135.5,-0.007011876
135.75,0.00609671
136,-0.00251798
136.25,0.00014127
136.5,-0.000606004
136.75,-0.000425174
137,-0.000130639
137.25,0.004871942
137.5,-0.007360789
137.75,0.005052495
138,-0.002387342
138.25,0.001132672
138.5,-0.001219807
138.75,0.001791864
139,-0.002586075
139.25,0.004177811
139.5,-0.003583825
139.75,0.001162745
140,-0.000349402
140.25,0.00032656
140.5,0.000795171
140.75,-0.000328343
141,-0.001723432
141.25,0.001717838
141.5,-0.001142349
141.75,0.000948837
142,-0.001384819
142.25,0.00236708
142.5,-0.000968104
142.75,-0.000321123
143,-0.000578534
143.25,0.001290886
143.5,-0.001158255
143.75,-0.000312917
144,-9.91255E-05
144.25,0.002580296
144.5,-0.002038547
144.75,-7.32463E-06
145,0.000689584
145.25,-0.001177749
145.5,0.002748474
145.75,-0.002821409
146,0.0002936
146.25,0.000622813
146.5,0.000413389
146.75,7.38819E-05
147,0.000369201
147.25,-0.002114407
147.5,0.001075728
147.75,0.000549549
148,-0.002127408
148.25,0.002531043
148.5,-0.001089858
148.75,-0.000171293
149,0.001846181
149.25,-0.00084059
149.5,-0.000992302
149.75,0.000915703
150,-0.001179761
150.25,0.001097819
150.5,-0.001484136
150.75,0.001736995
151,-0.000524233
151.25,2.48384E-05
151.5,-0.000196396
151.75,0.00065171
152,-0.001882917
152.25,0.002320134
152.5,-0.001460181
152.75,-0.000341674
153,0.001659535
153.25,-0.000369415
153.5,-0.000898128
153.75,0.000604038
154,-0.001905239
154.25,0.003791489
154.5,-0.002629617
154.75,0.00070494
155,0.000146856
155.25,-0.000560001
155.5,-0.001056304
155.75,0.002392713
156,-0.001483975
156.25,-0.000682334
156.5,0.002602711
156.75,-0.002060833
157,-6.35322E-05
157.25,0.001908259
157.5,-0.002220183
157.75,0.001677214
158,-0.000346692
158.25,-0.001540582
158.5,0.001574808
158.75,-0.000453243
159,-0.003450629
159.25,0.005974186
159.5,-0.003168001
159.75,0.001938522
160,-0.00119046
160.25,-0.000253038
160.5,0.00023167
160.75,-0.000443631
161,0.001634852
161.25,-0.004501136
161.5,0.004803106
161.75,0.000169502
162,-0.003017493
162.25,0.001092114
162.5,0.000128965
162.75,0.000490178
163,-0.001593343
163.25,0.001305305
163.5,0.002953769
163.75,6.90489E-05
164,-0.009788772
164.25,0.007356201
164.5,-0.001249337
164.75,0.000867334
165,-0.000521129
165.25,0.00166611
165.5,-0.003559726
165.75,0.002852415
166,-0.000375337
166.25,-0.003944308
166.5,0.007625797
166.75,-0.007098648
167,0.006146143
167.25,-0.00481111
167.5,0.002690374
167.75,-0.002301374
168,0.002292883
168.25,-0.000787032
168.5,-0.002031217
168.75,0.003077587
169,0.000284764
169.25,-0.003037382
169.5,0.001235898
169.75,-0.000239963
170,0.001156306
170.25,-0.001001707
170.5,0.000628799
170.75,8.18758E-05
171,-0.001382983
171.25,0.000349116
171.5,0.001798495
171.75,-0.000769661
172,-0.000673639
172.25,0.000753294
172.5,-0.001710077
172.75,0.001751655
173,-0.000240547
173.25,-0.001820908
173.5,0.004219638
173.75,-0.004469086
174,0.000644187
174.25,0.003683664
174.5,-0.003960345
174.75,0.000484179
175,0.002466262
175.25,-0.001630952
175.5,-0.002595723
175.75,0.005214936
176,-0.003969179
176.25,0.002305445
176.5,-0.000635497
176.75,0.00157628
177,-0.005025652
177.25,0.006931674
177.5,-0.004538242
177.75,-0.001298299
178,0.004644942
178.25,-0.004585049
178.5,0.004142501
178.75,-0.003476046
179,0.000818634
179.25,0.001480849
179.5,-0.001671883
179.75,0.00125099
180,-0.001025891
180.25,0.001515275
180.5,-0.003170194
180.75,0.00434396
181,-0.002366628
181.25,-0.001213217
181.5,0.003856324
181.75,-0.004125156
182,0.002492241
182.25,-0.000901514
182.5,5.20633E-05
182.75,-0.000202383
183,0.001205998
183.25,-0.001694655
183.5,0.002006821
183.75,-0.002583952
184,0.002231579
184.25,-0.000870426
184.5,-8.85694E-05
184.75,-0.000935255
185,0.002017654
185.25,-0.001589969
185.5,-6.14581E-05
185.75,0.001102196
186,0.00031544
186.25,-0.000918434
186.5,-0.000528865
186.75,0.001195757
187,0.000257002
187.25,-0.003393618
187.5,0.005472064
187.75,-0.003254769
188,-0.000735045
188.25,0.003071224
188.5,-0.004182676
188.75,0.003370298
189,-0.002962698
189.25,0.004565401
189.5,-0.005487456
189.75,0.004054607
190,-0.000968861
190.25,-0.00123633
190.5,0.002444768
190.75,-0.001990296
191,-0.000771381
191.25,0.00294347
191.5,-0.00395013
191.75,0.002925883
192,-0.000171388
192.25,-6.55217E-05
192.5,-0.001087857
192.75,0.000909237
193,-4.49374E-05
193.25,-0.000792593
193.5,0.000867534
193.75,-0.000826655
194,0.001268602
194.25,-0.000724674
194.5,-0.001452955
194.75,0.002418003
195,-0.001237931
195.25,0.001096448
195.5,-0.003328131
195.75,0.005068264
196,-0.003894982
196.25,0.000732756
196.5,0.002818303
196.75,-0.005166449
197,0.005906248
197.25,-0.005687947
197.5,0.004534545
197.75,-0.002411571
198,0.000618562
198.25,0.000185869
198.5,-0.000652024
198.75,0.001177396
199,-0.001596103
199.25,0.000252917
199.5,0.001626575
199.75,-0.001499965
200,-0.000184018
200.25,0.00242586
200.5,-0.002499616
200.75,0.001360567
201,-0.0013048
201.25,1.44983E-05
201.5,0.001828414
201.75,-0.001246923
202,-0.000373788
202.25,0.000808223
202.5,-0.001003895
202.75,0.000386302
203,0.001107563
203.25,-0.002054349
203.5,0.003798262
203.75,-0.006414202
204,0.006891165
204.25,-0.004825097
204.5,0.001927532
204.75,0.001160387
205,-0.002309739
205.25,0.001503616
205.5,-0.001190635
205.75,0.000355504
206,0.000625414
206.25,0.001277486
206.5,-0.003690177
206.75,0.003128787
207,-0.001813738
207.25,0.001018986
207.5,-0.000173908
207.75,0.000647779
208,-0.002806055
208.25,0.004882868
208.5,-0.004726038
208.75,0.00338764
209,-0.002649408
209.25,0.001367632
209.5,0.00120425
209.75,-0.004738636
210,0.007066662
210.25,-0.005252286
210.5,0.002411438
210.75,-0.001908338
211,0.000844992
211.25,0.00053412
211.5,0.000586839
211.75,-0.003537728
212,0.005907685
212.25,-0.006430022
212.5,0.006381659
212.75,-0.00540178
213,0.002974557
213.25,-0.001038251
213.5,0.001974658
213.75,-0.004112817
214,0.002844054
214.25,0.000432468
214.5,-0.002654077
214.75,0.002177935
215,-5.09558E-05
215.25,-0.00022103
215.5,-0.000717828
215.75,0.000854792
216,-0.000433427
216.25,0.000459857
216.5,0.000412252
216.75,-0.002428219
217,0.001636697
217.25,0.000475112
217.5,0.001202365
217.75,-0.00388578
218,0.003933458
218.25,-0.003425267
218.5,0.003373911
218.75,-0.002743732
219,0.001927502
219.25,-0.001511765
219.5,0.001357914
219.75,0.000248748
220,-0.002297998
220.25,0.002634558
220.5,-0.002549837
220.75,3.82267E-06
221,0.003659444
221.25,-0.004469744
221.5,0.003933162
221.75,-0.001846381
222,-0.000742234
222.25,0.001864785
222.5,-0.002610925
222.75,0.003246918
223,-0.002377614
223.25,-0.000412219
223.5,0.001212389
223.75,0.000165459
224,-0.000193133
224.25,0.000889738
224.5,-0.00117536
224.75,7.48483E-05
225,-0.001255289
225.25,0.001823669
225.5,-0.0013012
225.75,0.00088232
226,-0.000361407
226.25,0.002402538
226.5,-0.004794999
226.75,0.005497133
227,-0.006344676
227.25,0.006701828
227.5,-0.004497972
227.75,0.000983139
228,0.00027234
228.25,0.002791368
228.5,-0.005525681
228.75,0.003750937
229,0.002413034
229.25,-0.005549103
229.5,0.00231322
229.75,-0.000154089
230,-0.000772378
230.25,0.000534968
230.5,-0.00024844
230.75,0.001619757
231,-0.000979698
231.25,0.001566088
231.5,-0.003365913
231.75,0.001010154
232,0.000372865
232.25,6.42799E-05
232.5,-0.0015448
232.75,0.00530594
233,-0.004178536
233.25,0.001747042
233.5,-0.002990064
233.75,0.001448189
234,0.002346944
234.25,-0.004099998
234.5,0.004665661
234.75,-0.004403818
235,0.003330337
235.25,-0.002543695
235.5,0.003240103
235.75,-0.003897411
236,0.00376331
236.25,-0.002605008
236.5,0.000335759
236.75,0.000584095
237,-0.002779194
237.25,0.002685878
237.5,0.002089756
237.75,-0.003616488
238,0.002367121
238.25,-0.003651817
238.5,0.00483611
238.75,-0.002268712
239,-0.001588754
239.25,0.002064628
239.5,6.70578E-05
239.75,-0.00032279
240,-0.001295498
240.25,0.002575434
240.5,-0.001264581
240.75,-2.25148E-05
241,0.000572728
241.25,-0.00048371
241.5,-0.000847897
241.75,0.000282694
242,-0.000232237
242.25,0.001297799
242.5,-0.000857255
242.75,-0.001324124
243,0.005000838
243.25,-0.008595717
243.5,0.008808369
243.75,-0.004725244
244,0.001812075
244.25,-0.001157151
244.5,0.001096318
244.75,-0.001859528
245,0.002060446
245.25,-0.001231942
245.5,-0.001886706
245.75,0.003290515
246,-0.000507116
246.25,-0.002052532
246.5,0.001993278
246.75,-0.001968664
247,0.00155971
247.25,0.001079921
247.5,-0.002056146
247.75,0.001160869
248,-0.000539699
248.25,0.001131395
248.5,-0.002999075
248.75,0.004860143
249,-0.004720553
249.25,0.003097895
249.5,-0.001766543
249.75,0.003026321
250,-0.004487354
250.25,0.001507676
250.5,0.001441727
250.75,-0.001320662
251,-0.002009921
251.25,0.004454898
251.5,-0.002288008
251.75,-0.001373602
252,0.004933589
252.25,-0.006319535
252.5,0.004253198
252.75,-0.00079668
253,-0.002810877
253.25,0.004094816
253.5,-0.002542008
253.75,0.001541149
254,0.000216431
254.25,-0.00213476
254.5,0.000679244
254.75,0.001512431
255,-0.000936564
255.25,-0.001220902
255.5,0.002649386
255.75,-0.002388273
256,0.001126731
256.25,0.001150333
256.5,-0.003777461
256.75,0.004012318
257,-0.001599801
257.25,-0.000983305
257.5,3.75404E-05
257.75,0.002071131
258,-0.001924559
258.25,0.001349053
258.5,-3.75317E-05
258.75,-0.000689791
259,-0.000339598
259.25,0.000721465
259.5,-0.00034402
259.75,0.000440244
260,-0.000353456
260.25,0.000621777
260.5,-0.002023552
260.75,0.002111577
261,-0.000883477
261.25,-9.97103E-05
261.5,5.6703E-05
261.75,0.000483707
262,0.000313989
262.25,-0.000647176
262.5,-0.001256227
262.75,0.001885594
263,-0.000322951
263.25,1.63942E-05
263.5,-0.00042393
263.75,0.000549978
264,0.00032135
264.25,-0.002597887
264.5,0.003227192
264.75,-0.000997707
265,-0.001407996
265.25,0.002427416
265.5,-0.001470809
265.75,7.96817E-05
266,0.000388168
266.25,-0.002811639
266.5,0.005257516
266.75,-0.003727143
267,-0.001030659
267.25,0.003074617
267.5,-0.00133601
267.75,0.001123241
268,-0.001396507
268.25,0.001186288
268.5,-0.000942444
268.75,0.000288292
269,-0.000481947
269.25,0.001153329
269.5,-0.000873256
269.75,0.000214748
270,0.000718449
270.25,-0.002147258
270.5,0.003149435
270.75,-0.002231895
271,0.001513207
271.25,-0.002344692
271.5,0.001785381
271.75,-0.001073673
272,0.000221698
272.25,-0.000268774
272.5,0.001570648
272.75,-0.001670776
273,0.000667303
273.25,0.000677264
273.5,0.000123125
273.75,-0.001209074
274,0.000400116
274.25,-8.67436E-05
274.5,0.000653988
274.75,-0.00083144
275,0.001395234
275.25,-0.001099011
275.5,-0.000923202
275.75,0.001148779
276,-0.000294598
276.25,-0.000120931
276.5,0.000952954
276.75,-0.002256463
277,0.002011736
277.25,-4.35154E-05
277.5,-1.86555E-05
277.75,0.000646974
278,-0.001580485
278.25,0.000106641
278.5,0.000372467
278.75,0.000391522
279,-0.001242293
279.25,0.00171929
279.5,-0.001316618
279.75,0.001610177
280,-0.002029024
280.25,0.000847606
280.5,0.000282493
280.75,0.000580897
281,-0.001847882
281.25,0.001233882
281.5,0.000813071
281.75,-0.001735997
282,0.000133499
282.25,0.002163975
282.5,-0.003003989
282.75,0.00144221
283,0.000929063
283.25,-0.001771593
283.5,0.001128203
283.75,-8.18696E-05
284,-0.000190982
284.25,-0.000174382
284.5,0.001157025
284.75,-0.003012049
285,0.003539277
285.25,-0.002647727
285.5,0.001573456
285.75,-0.001898784
286,0.003207558
286.25,-0.002098421
286.5,0.001630705
286.75,-0.000843208
287,-0.001833734
287.25,0.002696216
287.5,-0.003755153
287.75,0.002980724
288,-0.001069218
288.25,0.000989447
288.5,-0.001539082
288.75,0.001564004
289,0.000145023
289.25,0.000210948
289.5,-0.000199184
289.75,-0.002252265
290,0.00251189
290.25,-0.001834057
290.5,0.002195761
290.75,-0.003060241
291,0.002295405
291.25,-0.000421694
291.5,-0.000238789
291.75,0.001283304
292,-0.002239675
292.25,0.001293622
292.5,0.000854285
292.75,-0.001515027
293,0.0004296
293.25,0.001710159
293.5,-0.003702179
293.75,0.002584389
294,-0.000763622
294.25,0.000764333
294.5,-0.000672221
294.75,-0.000772443
295,0.001383154
295.25,-0.000102843
295.5,0.000853524
295.75,-0.002114374
296,0.001692907
296.25,-0.001266925
296.5,0.000727172
296.75,-0.000798877
297,0.001567414
297.25,-0.0017962
297.5,0.000465159
297.75,0.000167195
298,0.00049395
298.25,-0.000423476
298.5,0.000452765
298.75,-0.001213205
299,0.001695428
299.25,-0.000436407
299.5,-0.001372517
299.75,0.001340493
300,-6.87795E-05
300.25,-0.000870162
300.5,0.001471479
300.75,-0.001464703
301,0.000651736
301.25,-0.000275232
301.5,-0.000997912
301.75,0.001779236
302,0.000562386
302.25,-0.002846969
302.5,0.002293536
302.75,0.000200551
303,-0.002099153
303.25,0.002945787
303.5,-0.001445512
303.75,-0.002292426
304,0.003315743
304.25,-0.001379423
304.5,0.00028744
304.75,4.45307E-05
305,-0.000946421
305.25,0.000489141
305.5,0.001144331
305.75,-0.002124562
306,0.000867389
306.25,0.0007077
306.5,-0.000281989
306.75,0.000493935
307,-2.29114E-05
307.25,-0.001692413
307.5,0.00147091
307.75,-0.00092433
308,0.001779079
308.25,-0.001668036
308.5,0.001868672
308.75,-0.001456653
309,-0.00083745
309.25,-0.000239661
309.5,0.002191951
309.75,-0.001048373
310,0.00097245
310.25,-0.002131657
310.5,0.001202058
310.75,-0.000194085
311,0.000224738
311.25,0.00097528
311.5,-0.00115502
311.75,-0.000351157
312,0.000725368
312.25,-0.000489339
312.5,-0.000348095
312.75,0.001334661
313,-0.000971021
313.25,-0.000122377
313.5,0.000266737
313.75,0.000305608
314,0.000272119
314.25,-0.001054031
314.5,0.000317969
314.75,0.000715965
315,-0.000576668
315.25,-0.000456847
315.5,0.001136914
315.75,-0.000703035
316,-0.000711322
316.25,0.002260184
316.5,-0.002057044
316.75,0.000934718
317,0.000612958
317.25,-0.002311815
317.5,0.003151737
317.75,-0.002057348
318,-0.000925296
318.25,0.001946096
318.5,-0.000878124
318.75,-0.000746237
319,0.001397847
319.25,-0.000105583
319.5,0.000503401
319.75,-0.001006501
320,-0.00183831
320.25,0.003813387
320.5,-0.003767799
320.75,0.001254547
321,0.00319523
321.25,-0.002903866
321.5,-5.01029E-05
321.75,0.000390085
322,-0.000113689
322.25,0.000492818
322.5,3.38588E-05
322.75,-0.002475066
323,0.006918396
323.25,-0.012362587
323.5,0.011944044
323.75,-0.004681729
324,0.002675593
324.25,-0.004701356
324.5,0.004010925
324.75,-0.002033145
325,0.001156493
325.25,-0.001779252
325.5,-0.000268453
325.75,0.003532002
326,-0.005071643
326.25,0.004902547
326.5,-0.001622592
326.75,-0.001772431
327,6.65494E-05
327.25,0.00125013
327.5,-0.002073234
327.75,0.002335655
328,0.001948784
328.25,-0.002815501
328.5,0.000656114
328.75,-0.002039154
329,0.001915712
329.25,0.001040465
329.5,0.000765753
329.75,-0.002129837
330,0.002003522
330.25,-0.003590147
330.5,0.003928785
330.75,-0.006671627
331,0.004675627
331.25,0.004138745
331.5,-0.007152835
331.75,0.005071638
332,-0.004384411
332.25,0.00195537
332.5,-0.000515949
332.75,0.001185465
333,0.001212966
333.25,0.004873464
333.5,-0.009310338
333.75,0.003099703
334,-0.00147261
334.25,0.000525637
334.5,0.000663142
334.75,-0.001855316
335,0.003905845
335.25,0.002803595
335.5,-0.015795655
335.75,0.011168577
336,0.004664577
336.25,-0.002240464
336.5,-0.004271772
336.75,0.002621738
337,-0.005177891
337.25,0.009142939
337.5,-0.005745928
337.75,-0.000807849
338,0.001617827
338.25,0.000547787
338.5,-0.000546665
338.75,-0.000352694
339,0.001453579
339.25,-0.00449985
339.5,0.006679742
339.75,-0.002848541
340,-0.001876038
340.25,0.000617613
340.5,0.003848535
340.75,-0.004859075
341,0.00276437
341.25,-7.98854E-05
341.5,-0.001053775
341.75,-9.57675E-05
342,5.18684E-06
342.25,0.000320807
342.5,-5.40345E-05
342.75,0.000513446
343,-0.001743814
343.25,0.002776289
343.5,-0.002521461
343.75,0.001837639
344,-0.002010722
344.25,0.001429507
344.5,0.001217175
344.75,-0.002212021
345,0.001216239
345.25,-0.000800194
345.5,-0.000345706
345.75,0.000769476
346,0.000863623
346.25,-0.000913981
346.5,-4.08185E-05
346.75,0.000322249
347,0.000349179
347.25,-0.001411318
347.5,0.000772381
347.75,-0.000806371
348,0.003115709
348.25,-0.003682313
348.5,0.000679461
348.75,0.000199072
349,0.002477484
349.25,-0.00141533
349.5,-0.001172752
349.75,4.82931E-05
350,0.000846794
350.25,-0.000244635
350.5,-0.000588729
350.75,0.001249451
351,-0.001576259
351.25,0.00138786
351.5,-0.000210159
351.75,-0.002122117
352,0.002916044
352.25,-8.4479E-05
352.5,-0.00189207
352.75,0.001773471
353,-0.001378807
353.25,-0.000273622
353.5,0.00056809
353.75,0.00160062
354,-0.001436863
354.25,-0.000672637
354.5,0.001057149
354.75,-0.000540402
355,0.000241608
355.25,0.000809987
355.5,-0.00148571
355.75,0.000491071
356,0.000246803
356.25,0.000271618
356.5,-0.00068141
356.75,0.000462182
357,2.21186E-06
357.25,-0.000911247
357.5,0.001046861
357.75,-0.00046581
358,0.000635319
358.25,-0.000955246
358.5,0.000449051
358.75,0.000216084
359,0.000570205
359.25,-0.002126095
359.5,0.002329449
359.75,-0.001355498
360,0.000490726
360.25,2.02758E-06
360.5,-0.001311935
360.75,0.002417721
361,-0.000638891
361.25,-0.001864391
361.5,0.001711228
361.75,0.000721566
362,-0.001533834
362.25,0.000914062
362.5,-0.002094438
362.75,0.002321133
363,-0.000603957
363.25,-0.000424076
363.5,-0.000108298
363.75,0.000209542
364,0.000903749
364.25,-0.001324368
364.5,0.000832114
364.75,-9.76004E-05
365,-0.000228084
365.25,0.00025988
365.5,-3.80097E-05
365.75,-0.000687406
366,0.001718627
366.25,-0.001905748
366.5,0.001165506
366.75,2.02693E-05
367,-0.001087102
367.25,0.000740883
367.5,0.000499914
367.75,-0.001093382
368,0.000409935
368.25,0.000457602
368.5,-0.001152866
368.75,0.001906836
369,-0.001873849
369.25,0.001285017
369.5,-0.001102319
369.75,-4.40579E-05
370,0.000888793
370.25,0.000443379
370.5,-0.000457624
370.75,-0.000654573
371,-3.03886E-05
371.25,0.001042748
371.5,-0.00095088
371.75,0.001464809
372,-0.001534599
372.25,0.00110589
372.5,-0.001146126
372.75,-0.000924654
373,0.003024971
373.25,-0.002117281
373.5,0.000632728
373.75,-0.000405326
374,-0.000104932
374.25,-0.00027982
374.5,0.001626312
374.75,-0.001255127
375,0.000323018
375.25,-0.000856716
375.5,0.001576253
375.75,-0.001332902
376,0.001117216
376.25,-0.000409431
376.5,-0.000117286
376.75,8.44438E-05
377,-0.000698638
377.25,0.000957599
377.5,-0.00183703
377.75,0.002341891
378,-0.00107458
378.25,6.25381E-06
378.5,0.002193852
378.75,-0.002417751
379,0.000527535
379.25,-0.000721489
379.5,0.000604928
379.75,0.000313073
380,-0.000982811
380.25,0.001520446
380.5,-0.000956904
380.75,-0.000218098
381,-0.000104541
381.25,0.001573379
381.5,-0.002198839
381.75,0.002007851
382,-0.001693215
382.25,0.001284455
382.5,-0.0022122
382.75,0.001440298
383,0.001624873
383.25,-0.001964844
383.5,0.001445404
383.75,-0.000478386
384,-0.002080111
384.25,0.003010659
384.5,-0.001834397
384.75,0.000177901
385,0.001245298
385.25,-0.000805763
385.5,-0.001076791
385.75,0.002117158
386,-0.00210857
386.25,0.000608687
386.5,0.001187052
386.75,-0.001511922
387,0.000680956
387.25,-4.77932E-05
387.5,-0.001292465
387.75,0.002985218
388,-0.001304529
388.25,-0.001634461
388.5,0.002401873
388.75,-0.001802798
389,0.00013825
389.25,0.001195245
389.5,1.72737E-05
389.75,-0.001242229
390,0.001835389
390.25,-0.002494119
390.5,0.00128103
390.75,-0.000130485
391,-0.000196984
391.25,0.000246883
391.5,0.001382459
391.75,-0.002435218
392,0.000902609
392.25,-0.00019664
392.5,0.001178701
392.75,0.000102929
393,-0.001821506
393.25,0.000804273
393.5,-0.000939104
393.75,0.001336725
394,0.001191518
394.25,-0.001791357
394.5,0.00073969
394.75,-0.0011015
395,-5.53327E-05
395.25,0.001524805
395.5,-0.000768189
395.75,-0.000724408
396,0.001819151
396.25,-0.000855156
396.5,-0.001821943
396.75,0.002991485
397,-0.003039995
397.25,0.002165962
397.5,0.000482822
397.75,-0.002498811
398,0.00364089
398.25,-0.00404588
398.5,0.001575418
398.75,0.000897806
399,-0.000207692
399.25,-0.000223733
399.5,-0.000939851
399.75,0.000379902
400,0.000103034
400.25,0.001965856
400.5,-0.00351784
400.75,0.002548252
401,-0.001006658
401.25,0.001210183
401.5,-0.0024229
401.75,0.001193908
402,0.001570899
402.25,-0.000911752
402.5,-0.000379191
402.75,-3.53235E-05
403,0.0002833
403.25,-0.000267044
403.5,-0.000953224
403.75,0.001671493
404,-0.000110354
404.25,-0.00100729
404.5,0.001168281
404.75,-0.00155892
405,0.0008467
405.25,7.17948E-05
405.5,0.000253146
405.75,-0.000730619
406,0.000367266
406.25,-0.000646827
406.5,0.000548483
406.75,0.001143382
407,-0.00116567
407.25,0.000666095
407.5,-0.001284756
407.75,0.001268955
408,-0.000345964
408.25,-0.000364717
408.5,-0.000261788
408.75,0.00112656
409,-0.001686292
409.25,0.001507277
409.5,7.99593E-05
409.75,-0.000699287
410,-0.000164976
410.25,0.00124893
410.5,-0.000976378
410.75,-0.00159302
411,0.00227474
411.25,-0.000440153
411.5,-0.000254257
411.75,-0.000753172
412,0.000416904
412.25,0.001253096
412.5,-0.001374916
412.75,0.000895144
413,0.000554003
413.25,-0.001586747
413.5,0.001391646
413.75,-0.001982565
414,0.00171927
414.25,-0.000660248
414.5,0.000215859
414.75,3.84289E-05
415,0.000545996
415.25,-0.002174343
415.5,0.004070438
415.75,-0.003962732
416,0.001825133
416.25,-0.00097213
416.5,0.001886734
416.75,-0.002166375
417,0.00137012
417.25,-0.001272861
417.5,-0.000189648
417.75,0.002510816
418,-0.003330052
418.25,0.003046112
418.5,-0.001531389
418.75,0.001462773
419,-0.000434247
419.25,-0.000390653
419.5,-0.001012389
419.75,0.000490981
420,-0.001445785
420.25,0.001856325
420.5,-0.001033856
420.75,0.001432959
421,-0.000883141
421.25,0.000849508
421.5,-0.000811493
421.75,-0.000583968
422,0.001959306
422.25,-0.001955933
422.5,-0.000331103
422.75,0.001605371
423,0.000692607
423.25,-0.00079421
423.5,-0.001819852
423.75,0.002369778
424,-0.001463602
424.25,0.001926529
424.5,-0.002480206
424.75,0.001318812
425,-0.000277888
425.25,-0.001298458
425.5,0.001434188
425.75,0.000693072
426,-0.000448304
426.25,-0.000798151
426.5,0.000969909
426.75,-0.002777312
427,0.003110136
427.25,-0.000321594
427.5,-0.000732022
427.75,0.001159953
428,-0.00146687
428.25,0.001424405
428.5,-0.001865802
428.75,0.002062664
429,-0.001965672
429.25,0.001323051
429.5,-0.001475315
429.75,0.001293523
430,-0.00172123
430.25,0.002369119
430.5,-0.000700817
430.75,-0.000378699
431,0.000975897
431.25,-0.001150198
431.5,0.000702475
431.75,-0.001593306
432,0.000803365
432.25,0.000992592
432.5,0.000719678
432.75,-0.001645155
433,3.07025E-05
433.25,-0.000372377
433.5,0.000624302
433.75,0.00094944
434,-0.000726332
434.25,-0.000708485
434.5,-0.000193275
434.75,0.001010041
435,-0.000596199
435.25,0.001310485
435.5,-0.001863386
435.75,0.002223149
436,-0.003494785
436.25,0.002895858
436.5,-0.001061273
436.75,0.00049315
437,0.001335558
437.25,-0.002982627
437.5,0.003003049
437.75,-0.003495499
438,0.002675465
438.25,-0.000888393
438.5,0.001251693
438.75,-0.002607669
439,0.00318398
439.25,-0.002003643
439.5,-0.000811643
439.75,0.001696976
440,-0.000325208
440.25,-0.000519324
440.5,0.001405675
440.75,-0.002380154
441,0.001146446
441.25,0.00191258
441.5,-0.003495082
441.75,0.003046327
442,-0.001476499
442.25,0.001793541
442.5,-0.006888074
442.75,0.008054752
443,-0.005027454
443.25,0.002687104
443.5,0.001633007
443.75,-0.00406944
444,0.004127898
444.25,-0.002918282
444.5,-0.001169912
444.75,0.00341944
445,-0.000445752
445.25,-0.002351376
445.5,0.003548844
445.75,-0.004106173
446,0.001610124
446.25,-3.80914E-05
446.5,0.000389852
446.75,0.00048217
447,-0.001037176
447.25,0.000169731
447.5,0.00154782
447.75,-0.003073917
448,0.003239252
448.25,-0.001120119
448.5,-0.001686926
448.75,0.002156784
449,-0.002095848
449.25,0.001632303
449.5,-0.000626837
449.75,0.001031733
